TITLE	
DATA TYPE	ULTRAVIOLET SPECTRUM
ORIGIN	JASCO
OWNER	
DATE	14/07/28
TIME	15:29:19
SPECTROMETER/DATA SYSTEM	
LOCALE	1036
RESOLUTION	
DELTAX	-1
XUNITS	NANOMETERS
YUNITS	ABSORBANCE
FIRSTX	  700,0000
LASTX	  250,0000
NPOINTS	     451
FIRSTY	     0,01778
MAXY	     0,84352
MINY	     0,01737
XYDATA
700,0000	0,0177847
699,0000	0,017829
698,0000	0,0178645
697,0000	0,0179281
696,0000	0,017948
695,0000	0,0179869
694,0000	0,0179732
693,0000	0,0179766
692,0000	0,0179399
691,0000	0,017886
690,0000	0,0178155
689,0000	0,0177695
688,0000	0,0176925
687,0000	0,0176086
686,0000	0,0175581
685,0000	0,017503
684,0000	0,017477
683,0000	0,0174362
682,0000	0,0173822
681,0000	0,0173731
680,0000	0,0174147
679,0000	0,0173962
678,0000	0,0174512
677,0000	0,0175119
676,0000	0,0175728
675,0000	0,017647
674,0000	0,0177541
673,0000	0,0178182
672,0000	0,017955
671,0000	0,0180624
670,0000	0,01814
669,0000	0,01822
668,0000	0,0182499
667,0000	0,0183061
666,0000	0,0183808
665,0000	0,0184167
664,0000	0,018403
663,0000	0,0184348
662,0000	0,0184363
661,0000	0,0184654
660,0000	0,0185147
659,0000	0,0185409
658,0000	0,0185269
657,0000	0,0185412
656,0000	0,0185527
655,0000	0,0185755
654,0000	0,0186122
653,0000	0,018626
652,0000	0,0186596
651,0000	0,0186719
650,0000	0,0186702
649,0000	0,0186707
648,0000	0,0186949
647,0000	0,0187054
646,0000	0,0187393
645,0000	0,0187307
644,0000	0,018737
643,0000	0,0187746
642,0000	0,0188545
641,0000	0,0188952
640,0000	0,0189016
639,0000	0,0188987
638,0000	0,0189101
637,0000	0,0189541
636,0000	0,0189871
635,0000	0,0190279
634,0000	0,0190776
633,0000	0,0191093
632,0000	0,0191183
631,0000	0,0191566
630,0000	0,0191557
629,0000	0,0191906
628,0000	0,0192336
627,0000	0,0192394
626,0000	0,0192585
625,0000	0,0193074
624,0000	0,019351
623,0000	0,0193844
622,0000	0,0194319
621,0000	0,0194316
620,0000	0,0194555
619,0000	0,0194864
618,0000	0,0195023
617,0000	0,0195292
616,0000	0,0195773
615,0000	0,019604
614,0000	0,0196684
613,0000	0,0197342
612,0000	0,0198134
611,0000	0,0198922
610,0000	0,0199212
609,0000	0,0199609
608,0000	0,0200423
607,0000	0,0200918
606,0000	0,02016
605,0000	0,0202663
604,0000	0,0203693
603,0000	0,0204944
602,0000	0,0206166
601,0000	0,020754
600,0000	0,0198518
599,0000	0,0198891
598,0000	0,0199638
597,0000	0,0200033
596,0000	0,0200581
595,0000	0,020105
594,0000	0,0201426
593,0000	0,0201968
592,0000	0,0202464
591,0000	0,0202672
590,0000	0,0202764
589,0000	0,0202812
588,0000	0,0203098
587,0000	0,0203212
586,0000	0,0203628
585,0000	0,0204013
584,0000	0,0204349
583,0000	0,0204842
582,0000	0,0204831
581,0000	0,0205071
580,0000	0,0205323
579,0000	0,0205638
578,0000	0,0205857
577,0000	0,0206504
576,0000	0,0207037
575,0000	0,0207995
574,0000	0,0208936
573,0000	0,0209861
572,0000	0,0210838
571,0000	0,0211879
570,0000	0,0212751
569,0000	0,0213617
568,0000	0,0214735
567,0000	0,0215612
566,0000	0,0216676
565,0000	0,0217992
564,0000	0,021917
563,0000	0,022051
562,0000	0,0221817
561,0000	0,0222917
560,0000	0,0223936
559,0000	0,0224846
558,0000	0,0225547
557,0000	0,0226334
556,0000	0,0226946
555,0000	0,0227924
554,0000	0,0228818
553,0000	0,022958
552,0000	0,0230531
551,0000	0,0231538
550,0000	0,0232643
549,0000	0,0233535
548,0000	0,0234764
547,0000	0,0235966
546,0000	0,0237243
545,0000	0,0238757
544,0000	0,0240778
543,0000	0,024301
542,0000	0,0245923
541,0000	0,0249488
540,0000	0,0254044
539,0000	0,0259478
538,0000	0,0266399
537,0000	0,0274962
536,0000	0,0285403
535,0000	0,0298795
534,0000	0,0315525
533,0000	0,0336387
532,0000	0,0362382
531,0000	0,0394279
530,0000	0,0433997
529,0000	0,0482206
528,0000	0,054048
527,0000	0,061007
526,0000	0,0692451
525,0000	0,0788471
524,0000	0,0898966
523,0000	0,10249
522,0000	0,116624
521,0000	0,132287
520,0000	0,14934
519,0000	0,1679
518,0000	0,187775
517,0000	0,208738
516,0000	0,230612
515,0000	0,25321
514,0000	0,276327
513,0000	0,299713
512,0000	0,323001
511,0000	0,345883
510,0000	0,368046
509,0000	0,389159
508,0000	0,40901
507,0000	0,427328
506,0000	0,443937
505,0000	0,458793
504,0000	0,471908
503,0000	0,483339
502,0000	0,493104
501,0000	0,501349
500,0000	0,50813
499,0000	0,513523
498,0000	0,517619
497,0000	0,520412
496,0000	0,521946
495,0000	0,522221
494,0000	0,521308
493,0000	0,519218
492,0000	0,516004
491,0000	0,511693
490,0000	0,506335
489,0000	0,500055
488,0000	0,492912
487,0000	0,485053
486,0000	0,47661
485,0000	0,467689
484,0000	0,458387
483,0000	0,448836
482,0000	0,43914
481,0000	0,429312
480,0000	0,419541
479,0000	0,409841
478,0000	0,400255
477,0000	0,390822
476,0000	0,381488
475,0000	0,372345
474,0000	0,363345
473,0000	0,354454
472,0000	0,345666
471,0000	0,337014
470,0000	0,328427
469,0000	0,319894
468,0000	0,311415
467,0000	0,302953
466,0000	0,294526
465,0000	0,286202
464,0000	0,277902
463,0000	0,269667
462,0000	0,261437
461,0000	0,253278
460,0000	0,245238
459,0000	0,237292
458,0000	0,22947
457,0000	0,221796
456,0000	0,214283
455,0000	0,206929
454,0000	0,199744
453,0000	0,192764
452,0000	0,18603
451,0000	0,179595
450,0000	0,173428
449,0000	0,167549
448,0000	0,162008
447,0000	0,156813
446,0000	0,151959
445,0000	0,147466
444,0000	0,143359
443,0000	0,139542
442,0000	0,136081
441,0000	0,132994
440,0000	0,130269
439,0000	0,127952
438,0000	0,126085
437,0000	0,12465
436,0000	0,123636
435,0000	0,12306
434,0000	0,122939
433,0000	0,123315
432,0000	0,124174
431,0000	0,125491
430,0000	0,127358
429,0000	0,129752
428,0000	0,132656
427,0000	0,136212
426,0000	0,140379
425,0000	0,145118
424,0000	0,150483
423,0000	0,156403
422,0000	0,162863
421,0000	0,169878
420,0000	0,177541
419,0000	0,185581
418,0000	0,19405
417,0000	0,202791
416,0000	0,21178
415,0000	0,221006
414,0000	0,23046
413,0000	0,240054
412,0000	0,24983
411,0000	0,259657
410,0000	0,269437
409,0000	0,279163
408,0000	0,288747
407,0000	0,298168
406,0000	0,307393
405,0000	0,316443
404,0000	0,325254
403,0000	0,333814
402,0000	0,342016
401,0000	0,349961
400,0000	0,357636
399,0000	0,365052
398,0000	0,372143
397,0000	0,378881
396,0000	0,385204
395,0000	0,391146
394,0000	0,396705
393,0000	0,401776
392,0000	0,406375
391,0000	0,410487
390,0000	0,414045
389,0000	0,416994
388,0000	0,419353
387,0000	0,421133
386,0000	0,422376
385,0000	0,423008
384,0000	0,423076
383,0000	0,422543
382,0000	0,421427
381,0000	0,419793
380,0000	0,417642
379,0000	0,41497
378,0000	0,41183
377,0000	0,408236
376,0000	0,404221
375,0000	0,399787
374,0000	0,394996
373,0000	0,389959
372,0000	0,384645
371,0000	0,379077
370,0000	0,373757
369,0000	0,36699
368,0000	0,359956
367,0000	0,353088
366,0000	0,346108
365,0000	0,338921
364,0000	0,331465
363,0000	0,323821
362,0000	0,316142
361,0000	0,308414
360,0000	0,30071
359,0000	0,292966
358,0000	0,285191
357,0000	0,277482
356,0000	0,269831
355,0000	0,262263
354,0000	0,254834
353,0000	0,247476
352,0000	0,240272
351,0000	0,233178
350,0000	0,226345
349,0000	0,219655
348,0000	0,21316
347,0000	0,206871
346,0000	0,200839
345,0000	0,195047
344,0000	0,189486
343,0000	0,18424
342,0000	0,179297
341,0000	0,174641
340,0000	0,169923
339,0000	0,165952
338,0000	0,162369
337,0000	0,159167
336,0000	0,156376
335,0000	0,153868
334,0000	0,151635
333,0000	0,149663
332,0000	0,148038
331,0000	0,146644
330,0000	0,145502
329,0000	0,144551
328,0000	0,143813
327,0000	0,143204
326,0000	0,142794
325,0000	0,142546
324,0000	0,14242
323,0000	0,1424
322,0000	0,142478
321,0000	0,142592
320,0000	0,142817
319,0000	0,143188
318,0000	0,143667
317,0000	0,144296
316,0000	0,145088
315,0000	0,146133
314,0000	0,147502
313,0000	0,149264
312,0000	0,151485
311,0000	0,154244
310,0000	0,157566
309,0000	0,161563
308,0000	0,166288
307,0000	0,17193
306,0000	0,178503
305,0000	0,186257
304,0000	0,195288
303,0000	0,20583
302,0000	0,218175
301,0000	0,232453
300,0000	0,248708
299,0000	0,267009
298,0000	0,287333
297,0000	0,309642
296,0000	0,333997
295,0000	0,36051
294,0000	0,389125
293,0000	0,419779
292,0000	0,4523
291,0000	0,486379
290,0000	0,521834
289,0000	0,558302
288,0000	0,595289
287,0000	0,632168
286,0000	0,668115
285,0000	0,702319
284,0000	0,734049
283,0000	0,762536
282,0000	0,787287
281,0000	0,807895
280,0000	0,823894
279,0000	0,835028
278,0000	0,841375
277,0000	0,843522
276,0000	0,842076
275,0000	0,83769
274,0000	0,831026
273,0000	0,822378
272,0000	0,81215
271,0000	0,800648
270,0000	0,788219
269,0000	0,775177
268,0000	0,761706
267,0000	0,747879
266,0000	0,733782
265,0000	0,719523
264,0000	0,705247
263,0000	0,691199
262,0000	0,67748
261,0000	0,664166
260,0000	0,651421
259,0000	0,639377
258,0000	0,62825
257,0000	0,618291
256,0000	0,609757
255,0000	0,602997
254,0000	0,598357
253,0000	0,596312
252,0000	0,597219
251,0000	0,601568
250,0000	0,60979

##### Extended Information
[Comments]
Sample name
Comment
User
Division
Company	IBS38

[Detailed Information]
Creation date	28/07/2014 15:29

Data array type	Linear data array
Horizontal axis	Wavelength [nm]
Vertical axis	Abs
Start	700 nm
End	250 nm
Data interval	1 nm
Data points	451     

[Measurement Information]
Instrument name	UV/Vis JASCO
Model name	V-650
Serial No.	B117561150

Measurement date	28/07/2014 15:29

Photometric mode	Abs
Measurement range	700 - 250 nm
Data interval	1 nm
UV/Vis bandwidth	5.0 nm
Response	Medium
Scan speed	1000 nm/min
Change source at	340 nm
Light source	D2/WI
Filter exchange	Step
Correction	Baseline

